ENVI
description = {
  New spectral library file [Sun Feb 22 15:35:30 2009]}
samples = 260
lines   = 8
bands   = 1
header offset = 0
file type = ENVI Spectral Library
data type = 5
interleave = bsq
sensor type = Unknown
byte order = 0
wavelength units = Nanometers
reflectance scale factor = 1.000000
z plot titles = {Wavelength, Value}
band names = {
 Spectral Library}
spectra names = {
 74002.2216_0-500, 74002.2217_0-500, 74002.2218_0-500, 74002.2219_0-500, 
 74002.339_0-500, 15401.136_bulk, 74001.439_bulk, 74220.806_bulk}
wavelength = {
  406.100006,  416.079987,  426.059998,  436.040009,  446.019989,  456.000000,
  465.980011,  475.959991,  485.950012,  495.929993,  505.910004,  515.890015,
  525.869995,  535.849976,  545.830017,  555.809998,  565.789978,  575.770020,
  585.760010,  595.739990,  605.719971,  615.700012,  625.679993,  635.659973,
  645.640015,  655.619995,  665.599976,  675.580017,  685.559998,  695.549988,
  705.530029,  715.510010,  725.489990,  735.469971,  745.450012,  755.429993,
  765.409973,  775.390015,  785.369995,  795.359985,  805.340027,  815.320007,
  825.299988,  835.280029,  845.260010,  855.239990,  865.219971,  875.200012,
  885.179993,  895.169983,  905.150024,  915.130005,  925.109985,  935.090027,
  945.070007,  955.049988,  965.030029,  975.010010,  984.989990,  994.969971,
 1004.960022, 1014.940002, 1024.920044, 1034.900024, 1044.880005, 1054.859985,
 1064.839966, 1074.819946, 1084.800049, 1094.780029, 1104.770020, 1114.750000,
 1124.729980, 1134.709961, 1144.689941, 1154.670044, 1164.650024, 1174.630005,
 1184.609985, 1194.589966, 1204.579956, 1214.560059, 1224.540039, 1234.520020,
 1244.500000, 1254.479980, 1264.459961, 1274.439941, 1284.420044, 1294.400024,
 1304.380005, 1314.369995, 1324.349976, 1334.329956, 1344.310059, 1354.290039,
 1364.270020, 1374.250000, 1384.229980, 1394.209961, 1404.189941, 1414.180054,
 1424.160034, 1434.140015, 1444.119995, 1454.099976, 1464.079956, 1474.060059,
 1484.040039, 1494.020020, 1504.000000, 1513.989990, 1523.969971, 1533.949951,
 1543.930054, 1553.910034, 1563.890015, 1573.869995, 1583.849976, 1593.829956,
 1603.810059, 1613.800049, 1623.780029, 1633.760010, 1643.739990, 1653.719971,
 1663.699951, 1673.680054, 1683.660034, 1693.640015, 1703.619995, 1713.599976,
 1723.589966, 1733.569946, 1743.550049, 1753.530029, 1763.510010, 1773.489990,
 1783.469971, 1793.449951, 1803.430054, 1813.410034, 1823.400024, 1833.380005,
 1843.359985, 1853.339966, 1863.319946, 1873.300049, 1883.280029, 1893.260010,
 1903.239990, 1913.219971, 1923.209961, 1933.189941, 1943.170044, 1953.150024,
 1963.130005, 1973.109985, 1983.089966, 1993.069946, 2003.050049, 2013.030029,
 2023.010010, 2033.000000, 2042.979980, 2052.959961, 2062.939941, 2072.919922,
 2082.899902, 2092.879883, 2102.860107, 2112.840088, 2122.820068, 2132.810059,
 2142.790039, 2152.770020, 2162.750000, 2172.729980, 2182.709961, 2192.689941,
 2202.669922, 2212.649902, 2222.629883, 2232.620117, 2242.600098, 2252.580078,
 2262.560059, 2272.540039, 2282.520020, 2292.500000, 2302.479980, 2312.459961,
 2322.439941, 2332.419922, 2342.409912, 2352.389893, 2362.370117, 2372.350098,
 2382.330078, 2392.310059, 2402.290039, 2412.270020, 2422.250000, 2432.229980,
 2442.219971, 2452.199951, 2462.179932, 2472.159912, 2482.139893, 2492.120117,
 2502.100098, 2512.080078, 2522.060059, 2532.040039, 2542.030029, 2552.010010,
 2561.989990, 2571.969971, 2581.949951, 2591.929932, 2601.909912, 2611.889893,
 2621.870117, 2631.850098, 2641.830078, 2651.820068, 2661.800049, 2671.780029,
 2681.760010, 2691.739990, 2701.719971, 2711.699951, 2721.679932, 2731.659912,
 2741.639893, 2751.629883, 2761.610107, 2771.590088, 2781.570068, 2791.550049,
 2801.530029, 2811.510010, 2821.489990, 2831.469971, 2841.449951, 2851.439941,
 2861.419922, 2871.399902, 2881.379883, 2891.360107, 2901.340088, 2911.320068,
 2921.300049, 2931.280029, 2941.260010, 2951.250000, 2961.229980, 2971.209961,
 2981.189941, 2991.169922}
fwhm = {
 12.330000, 12.330000, 12.320000, 12.310000, 12.310000, 12.300000, 12.300000,
 12.290000, 12.290000, 12.280000, 12.280000, 12.270000, 12.270000, 12.260000,
 12.260000, 12.260000, 12.250000, 12.250000, 12.250000, 12.240000, 12.240000,
 12.240000, 12.240000, 12.230000, 12.230000, 12.230000, 12.230000, 12.230000,
 12.220000, 12.220000, 12.220000, 12.220000, 12.220000, 12.220000, 12.220000,
 12.220000, 12.220000, 12.220000, 12.220000, 12.220000, 12.220000, 12.220000,
 12.220000, 12.220000, 12.220000, 12.230000, 12.230000, 12.230000, 12.230000,
 12.230000, 12.230000, 12.240000, 12.240000, 12.240000, 12.240000, 12.240000,
 12.250000, 12.250000, 12.250000, 12.260000, 12.260000, 12.260000, 12.260000,
 12.270000, 12.270000, 12.270000, 12.280000, 12.280000, 12.290000, 12.290000,
 12.290000, 12.300000, 12.300000, 12.310000, 12.310000, 12.310000, 12.320000,
 12.320000, 12.330000, 12.330000, 12.340000, 12.340000, 12.350000, 12.350000,
 12.360000, 12.360000, 12.370000, 12.370000, 12.380000, 12.380000, 12.390000,
 12.390000, 12.400000, 12.400000, 12.410000, 12.410000, 12.420000, 12.420000,
 12.430000, 12.430000, 12.440000, 12.450000, 12.450000, 12.460000, 12.460000,
 12.470000, 12.470000, 12.480000, 12.480000, 12.490000, 12.500000, 12.500000,
 12.510000, 12.510000, 12.520000, 12.520000, 12.530000, 12.530000, 12.540000,
 12.550000, 12.550000, 12.560000, 12.560000, 12.570000, 12.570000, 12.580000,
 12.580000, 12.590000, 12.590000, 12.600000, 12.600000, 12.610000, 12.610000,
 12.620000, 12.620000, 12.630000, 12.630000, 12.640000, 12.640000, 12.650000,
 12.650000, 12.660000, 12.660000, 12.670000, 12.670000, 12.680000, 12.680000,
 12.680000, 12.690000, 12.690000, 12.700000, 12.700000, 12.700000, 12.710000,
 12.710000, 12.710000, 12.720000, 12.720000, 12.720000, 12.730000, 12.730000,
 12.730000, 12.740000, 12.740000, 12.740000, 12.740000, 12.750000, 12.750000,
 12.750000, 12.750000, 12.760000, 12.760000, 12.760000, 12.760000, 12.760000,
 12.760000, 12.760000, 12.760000, 12.770000, 12.770000, 12.770000, 12.770000,
 12.770000, 12.770000, 12.770000, 12.770000, 12.770000, 12.770000, 12.770000,
 12.770000, 12.760000, 12.760000, 12.760000, 12.760000, 12.760000, 12.760000,
 12.750000, 12.750000, 12.750000, 12.750000, 12.740000, 12.740000, 12.740000,
 12.740000, 12.730000, 12.730000, 12.720000, 12.720000, 12.720000, 12.710000,
 12.710000, 12.700000, 12.700000, 12.690000, 12.690000, 12.680000, 12.670000,
 12.670000, 12.660000, 12.650000, 12.650000, 12.640000, 12.630000, 12.630000,
 12.620000, 12.610000, 12.600000, 12.590000, 12.580000, 12.580000, 12.570000,
 12.560000, 12.550000, 12.540000, 12.530000, 12.520000, 12.510000, 12.500000,
 12.480000, 12.470000, 12.460000, 12.450000, 12.440000, 12.420000, 12.410000,
 12.400000, 12.380000, 12.370000, 12.360000, 12.340000, 12.330000, 12.310000,
 12.300000, 12.280000, 12.270000, 12.250000, 12.230000, 12.220000, 12.200000,
 12.180000}
